UNCORRECTED ACCELEROGRAM DATA              PROCESSED: 06/30/2011
0911131
11/12/2009 23:09:53 (GMT)               (ORIGIN: 11/12/2009 23:09:53 GMT)
                                   TRIGGER TIME: 11/12/2009 23:10:03.000 GMT
STATION NO.          0.000N    0.000E  QDR       S/N  673 (3  CHNS OF 3  AT STA)
QDR S/N 673
CHAN  1: EW       (STA CHN:  1)               
UNIVERSIDAD DE CHILE - RENADIC
HYPOCENTER:   0.000N    0.000E  H=   0.0KM   ML= 0.00
INSTR PERIOD = 0.0391 SEC,  DAMPING =0.7000,  SENSITIVITY =1.250 VDC/G
NO. OF POINTS =   3500  RECORD LENGTH = 35.000 SEC
UNITS OF UNCOR ACCEL ARE SEC AND G/10.     MAX  = -0.051 G, AT   3.910 SEC
RMS ACCEL OF COMPLETE RECORD = 0.010 G
    1    1    1    3    3    0    1    0    0    0    0    0    0    0    0    0
    0    0    0    0    0    0    0    0    0    0    0 3500    7   11   30    0
    0    0    0    0    0    0    0    0    0    0    0    0    0    0    0    0
    0    0    0    0    0    0    0    0    0    0    0    0    0    0    0    0
    0    0    0    0    0    0    0    0    0    0    0    0    0    0    0    0
    0    0    0    0    0    0    0    0    0    0    0    0    0    0    0    0
    0    0    0    0
     0.039     0.700    35.000     0.010     0.100     1.250    -0.051     3.910
    25.575     0.000     0.000     0.000    10.000     0.000    10.000    10.000
     0.000     0.000     0.000     0.000     0.000     0.000     0.000     0.000
     0.000     0.000     0.000     0.000     0.000     0.000     0.000     0.000
     0.000     0.000     0.000     0.000     0.000     0.000     0.000     0.000
     0.000     0.000     0.000     0.000     0.000     0.000     0.000     0.000
     0.000     0.000
  0.000  0.078  0.010  0.021  0.020 -0.024  0.030 -0.034  0.040 -0.034
  0.050 -0.043  0.060 -0.041  0.070 -0.034  0.080 -0.006  0.090  0.022
  0.100  0.033  0.110  0.009  0.120 -0.012  0.130 -0.012  0.140 -0.012
  0.150 -0.012  0.160 -0.012  0.170 -0.029  0.180 -0.010  0.190  0.047
  0.200  0.065  0.210  0.016  0.220 -0.038  0.230 -0.047  0.240 -0.018
  0.250  0.033  0.260  0.027  0.270 -0.015  0.280 -0.034  0.290 -0.006
  0.300  0.042  0.310  0.040  0.320 -0.010  0.330 -0.057  0.340 -0.033
  0.350  0.024  0.360  0.056  0.370  0.047  0.380  0.033  0.390 -0.008
  0.400 -0.039  0.410 -0.057  0.420 -0.057  0.430 -0.011  0.440  0.018
  0.450  0.047  0.460  0.056  0.470  0.052  0.480  0.013  0.490 -0.028
  0.500 -0.012  0.510 -0.006  0.520  0.011  0.530  0.030  0.540  0.030
  0.550  0.011  0.560 -0.005  0.570 -0.033  0.580 -0.024  0.590  0.011
  0.600  0.011  0.610 -0.012  0.620 -0.020  0.630 -0.049  0.640 -0.057
  0.650 -0.043  0.660  0.032  0.670  0.090  0.680  0.101  0.690  0.086
  0.700  0.029  0.710 -0.029  0.720 -0.038  0.730 -0.057  0.740 -0.041
  0.750 -0.034  0.760 -0.012  0.770  0.001  0.780  0.048  0.790  0.078
  0.800  0.069  0.810  0.040  0.820  0.012  0.830 -0.012  0.840 -0.024
  0.850 -0.034  0.860 -0.057  0.870 -0.049  0.880 -0.006  0.890  0.031
  0.900  0.056  0.910  0.056  0.920  0.056  0.930  0.032  0.940  0.003
  0.950 -0.025  0.960 -0.034  0.970 -0.031  0.980 -0.002  0.990  0.011
  1.000  0.011  1.010 -0.012  1.020 -0.012  1.030 -0.012  1.040 -0.012
  1.050 -0.003  1.060  0.026  1.070  0.012  1.080 -0.017  1.090 -0.046
  1.100 -0.075  1.110 -0.079  1.120 -0.063  1.130 -0.034  1.140  0.028
  1.150  0.110  1.160  0.145  1.170  0.094  1.180 -0.014  1.190 -0.071
  1.200 -0.102  1.210 -0.082  1.220 -0.034  1.230 -0.024  1.240  0.021
  1.250  0.056  1.260  0.072  1.270  0.043  1.280  0.033  1.290  0.056
  1.300  0.056  1.310  0.025  1.320 -0.011  1.330 -0.057  1.340 -0.045
  1.350 -0.016  1.360 -0.034  1.370 -0.026  1.380  0.003  1.390  0.031
  1.400  0.029  1.410 -0.011  1.420 -0.034  1.430  0.012  1.440  0.063
  1.450  0.065  1.460  0.016  1.470 -0.038  1.480 -0.047  1.490 -0.002
  1.500  0.033  1.510 -0.002  1.520 -0.034  1.530 -0.034  1.540 -0.032
  1.550 -0.012  1.560 -0.027  1.570 -0.056  1.580 -0.057  1.590 -0.045
  1.600 -0.016  1.610  0.037  1.620  0.078  1.630  0.064  1.640  0.035
  1.650 -0.012  1.660 -0.023  1.670 -0.017  1.680  0.011  1.690  0.011
  1.700  0.024  1.710  0.053  1.720  0.052  1.730  0.013  1.740 -0.028
  1.750 -0.057  1.760 -0.044  1.770  0.001  1.780  0.011  1.790  0.033
  1.800  0.033  1.810  0.048  1.820  0.056  1.830  0.045  1.840 -0.013
  1.850 -0.052  1.860 -0.029  1.870  0.041  1.880  0.041  1.890  0.012
  1.900 -0.061  1.910 -0.058  1.920  0.017  1.930  0.055  1.940  0.019
  1.950 -0.039  1.960 -0.057  1.970 -0.031  1.980 -0.012  1.990  0.004
  2.000  0.011  2.010  0.011  2.020 -0.002  2.030 -0.031  2.040 -0.029
  2.050  0.011  2.060 -0.005  2.070 -0.012  2.080  0.038  2.090  0.067
  2.100  0.060  2.110  0.005  2.120 -0.057  2.130 -0.057  2.140 -0.057
  2.150 -0.052  2.160 -0.002  2.170  0.067  2.180  0.101  2.190  0.101
  2.200  0.074  2.210  0.016  2.220 -0.060  2.230 -0.069  2.240 -0.024
  2.250  0.033  2.260  0.021  2.270 -0.012  2.280 -0.012  2.290  0.011
  2.300  0.002  2.310 -0.012  2.320 -0.012  2.330  0.011  2.340  0.022
  2.350  0.033  2.360  0.056  2.370  0.039  2.380 -0.033  2.390 -0.077
  2.400 -0.030  2.410 -0.001  2.420  0.028  2.430  0.010  2.440 -0.019
  2.450 -0.048  2.460 -0.077  2.470 -0.053  2.480 -0.015  2.490  0.043
  2.500  0.078  2.510  0.049  2.520  0.021  2.530 -0.027  2.540 -0.057
  2.550 -0.057  2.560 -0.041  2.570 -0.013  2.580 -0.034  2.590 -0.023
  2.600 -0.012  2.610 -0.012  2.620 -0.012  2.630  0.017  2.640  0.074
  2.650  0.074  2.660  0.056  2.670  0.038  2.680 -0.015  2.690 -0.094
  2.700 -0.124  2.710 -0.085  2.720  0.003  2.730  0.098  2.740  0.091
  2.750 -0.012  2.760 -0.050  2.770 -0.022  2.780  0.026  2.790  0.056
  2.800  0.047  2.810  0.033  2.820  0.012  2.830  0.005  2.840 -0.035
  2.850 -0.057  2.860 -0.055  2.870 -0.026  2.880  0.003  2.890  0.031
  2.900  0.083  2.910  0.101  2.920  0.083  2.930  0.031  2.940 -0.012
  2.950  0.002  2.960  0.030  2.970  0.030  2.980 -0.019  2.990 -0.122
  3.000 -0.169  3.010 -0.105  3.020 -0.019  3.030  0.048  3.040  0.056
  3.050  0.056  3.060  0.056  3.070  0.077  3.080  0.045  3.090  0.011
  3.100 -0.007  3.110 -0.038  3.120 -0.079  3.130 -0.065  3.140 -0.036
  3.150 -0.034  3.160 -0.024  3.170  0.005  3.180  0.079  3.190  0.093
  3.200  0.038  3.210 -0.049  3.220 -0.057  3.230 -0.047  3.240 -0.018
  3.250  0.033  3.260  0.039  3.270  0.068  3.280  0.040  3.290 -0.012
  3.300 -0.021  3.310 -0.050  3.320 -0.057  3.330 -0.024  3.340  0.022
  3.350  0.033  3.360 -0.015  3.370 -0.065  3.380 -0.050  3.390  0.007
  3.400  0.038  3.410  0.056  3.420  0.056  3.430  0.033  3.440  0.033
  3.450  0.020  3.460 -0.009  3.470 -0.038  3.480 -0.057  3.490 -0.057
  3.500 -0.057  3.510 -0.050  3.520 -0.034  3.530  0.022  3.540  0.083
  3.550  0.123  3.560  0.092  3.570  0.013  3.580 -0.068  3.590 -0.102
  3.600 -0.102  3.610 -0.102  3.620 -0.094  3.630 -0.022  3.640  0.073
  3.650  0.118  3.660  0.068  3.670 -0.001  3.680 -0.035  3.690 -0.057
  3.700 -0.070  3.710 -0.079  3.720 -0.076  3.730 -0.027  3.740  0.043
  3.750  0.101  3.760  0.065  3.770  0.033  3.780  0.033  3.790  0.011
  3.800  0.011  3.810 -0.005  3.820 -0.012  3.830 -0.012  3.840 -0.012
  3.850 -0.012  3.860 -0.010  3.870  0.019  3.880  0.047  3.890  0.056
  3.900  0.051  3.910  0.012  3.920 -0.046  3.930 -0.057  3.940 -0.042
  3.950  0.015  3.960  0.033  3.970 -0.019  3.980 -0.047  3.990 -0.034
  4.000 -0.012  4.010 -0.006  4.020  0.023  4.030  0.052  4.040  0.028
  4.050 -0.021  4.060 -0.065  4.070 -0.079  4.080 -0.051  4.090 -0.023
  4.100  0.006  4.110  0.057  4.120  0.070  4.130  0.027  4.140 -0.031
  4.150 -0.034  4.160 -0.034  4.170 -0.034  4.180 -0.057  4.190 -0.057
  4.200 -0.043  4.210 -0.015  4.220  0.037  4.230  0.065  4.240  0.078
  4.250  0.056  4.260  0.004  4.270 -0.024  4.280 -0.034  4.290 -0.034
  4.300 -0.025  4.310  0.003  4.320  0.054  4.330  0.050  4.340  0.021
  4.350 -0.007  4.360 -0.034  4.370 -0.026  4.380 -0.012  4.390 -0.012
  4.400 -0.012  4.410 -0.012  4.420 -0.012  4.430  0.011  4.440  0.003
  4.450 -0.012  4.460  0.008  4.470  0.030  4.480  0.001  4.490 -0.012
  4.500 -0.012  4.510 -0.063  4.520 -0.067  4.530 -0.019  4.540  0.081
  4.550  0.101  4.560  0.055  4.570 -0.032  4.580 -0.079  4.590 -0.056
  4.600 -0.016  4.610 -0.033  4.620 -0.004  4.630  0.025  4.640  0.033
  4.650  0.029  4.660 -0.011  4.670 -0.034  4.680  0.012  4.690  0.056
  4.700  0.056  4.710 -0.004  4.720 -0.086  4.730 -0.114  4.740 -0.086
  4.750 -0.057  4.760 -0.006  4.770  0.023  4.780  0.071  4.790  0.073
  4.800  0.024  4.810 -0.020  4.820 -0.013  4.830  0.033  4.840  0.021
  4.850 -0.007  4.860 -0.036  4.870 -0.065  4.880 -0.094  4.890 -0.081
  4.900  0.024  4.910  0.078  4.920  0.044  4.930 -0.013  4.940 -0.034
  4.950 -0.021  4.960  0.008  4.970  0.011  4.980  0.001  4.990 -0.028
  5.000 -0.034  5.010  0.017  5.020  0.046  5.030  0.037  5.040 -0.015
  5.050 -0.034  5.060 -0.019  5.070 -0.012  5.080 -0.012  5.090 -0.000
  5.100  0.029  5.110  0.033  5.120  0.017  5.130 -0.026  5.140 -0.014
  5.150  0.038  5.160  0.045  5.170  0.033  5.180  0.010  5.190 -0.012
  5.200 -0.012  5.210 -0.012  5.220 -0.031  5.230 -0.002  5.240  0.043
  5.250  0.078  5.260  0.072  5.270  0.030  5.280 -0.046  5.290 -0.104
  5.300 -0.106  5.310 -0.049  5.320  0.009  5.330  0.038  5.340  0.067
  5.350  0.060  5.360  0.031  5.370  0.011  5.380 -0.004  5.390 -0.033
  5.400 -0.030  5.410 -0.012  5.420  0.005  5.430  0.010  5.440 -0.012
  5.450 -0.025  5.460 -0.054  5.470 -0.057  5.480 -0.047  5.490  0.014
  5.500  0.101  5.510  0.123  5.520  0.085  5.530 -0.001  5.540 -0.054
  5.550 -0.007  5.560  0.064  5.570  0.056  5.580  0.028  5.590  0.011
  5.600 -0.007  5.610 -0.034  5.620 -0.026  5.630  0.003  5.640  0.011
  5.650 -0.012  5.660 -0.001  5.670  0.011  5.680 -0.013  5.690 -0.041
  5.700 -0.057  5.710 -0.037  5.720  0.007  5.730 -0.022  5.740 -0.034
  5.750 -0.012  5.760 -0.012  5.770 -0.024  5.780 -0.034  5.790  0.013
  5.800  0.042  5.810  0.056  5.820  0.034  5.830  0.005  5.840 -0.012
  5.850  0.006  5.860  0.012  5.870  0.033  5.880  0.033  5.890  0.033
  5.900  0.002  5.910 -0.034  5.920 -0.034  5.930 -0.034  5.940 -0.034
  5.950 -0.021  5.960  0.008  5.970  0.037  5.980  0.056  5.990  0.023
  6.000 -0.057  6.010 -0.095  6.020 -0.054  6.030  0.003  6.040  0.036
  6.050  0.065  6.060  0.063  6.070  0.012  6.080  0.016  6.090  0.033
  6.100 -0.003  6.110 -0.081  6.120 -0.102  6.130 -0.087  6.140 -0.038
  6.150  0.020  6.160  0.056  6.170  0.056  6.180  0.055  6.190  0.033
  6.200  0.020  6.210 -0.009  6.220 -0.060  6.230 -0.069  6.240 -0.024
  6.250  0.056  6.260  0.078  6.270  0.078  6.280  0.059  6.290  0.008
  6.300 -0.021  6.310 -0.034  6.320 -0.013  6.330  0.011  6.340  0.022
  6.350  0.015  6.360 -0.014  6.370 -0.042  6.380 -0.042  6.390 -0.014
  6.400  0.011  6.410  0.011  6.420 -0.006  6.430 -0.014  6.440 -0.057
  6.450 -0.057  6.460 -0.037  6.470  0.014  6.480  0.043  6.490  0.039
  6.500  0.011  6.510 -0.006  6.520  0.023  6.530  0.071  6.540  0.101
  6.550  0.083  6.560  0.040  6.570  0.012  6.580  0.005  6.590 -0.035
  6.600 -0.075  6.610 -0.074  6.620  0.004  6.630  0.047  6.640  0.056
  6.650  0.024  6.660 -0.033  6.670 -0.091  6.680 -0.077  6.690 -0.020
  6.700  0.065  6.710  0.140  6.720  0.093  6.730  0.036  6.740 -0.006
  6.750  0.011  6.760  0.011  6.770 -0.002  6.780 -0.031  6.790  0.013
  6.800  0.042  6.810  0.071  6.820  0.035  6.830 -0.034  6.840 -0.034
  6.850 -0.016  6.860  0.011  6.870 -0.006  6.880 -0.049  6.890 -0.057
  6.900 -0.057  6.910 -0.046  6.920 -0.000  6.930  0.032  6.940  0.003
  6.950 -0.012  6.960 -0.012  6.970 -0.008  6.980  0.021  6.990  0.001
  7.000 -0.034  7.010 -0.034  7.020 -0.022  7.030  0.007  7.040  0.008
  7.050 -0.003  7.060  0.026  7.070  0.012  7.080  0.005  7.090 -0.024
  7.100 -0.034  7.110 -0.055  7.120 -0.026  7.130 -0.012  7.140 -0.053
  7.150 -0.052  7.160 -0.002  7.170  0.067  7.180  0.077  7.190  0.041
  7.200 -0.003  7.210  0.008  7.220  0.056  7.230  0.056  7.240  0.056
  7.250  0.033  7.260 -0.012  7.270 -0.024  7.280 -0.015  7.290 -0.009
  7.300  0.002  7.310 -0.012  7.320 -0.033  7.330 -0.034  7.340 -0.023
  7.350 -0.012  7.360 -0.012  7.370 -0.004  7.380  0.025  7.390  0.033
  7.400  0.033  7.410  0.022  7.420  0.011  7.430  0.011  7.440  0.018
  7.450  0.033  7.460  0.013  7.470  0.011  7.480  0.011  7.490 -0.006
  7.500 -0.034  7.510 -0.063  7.520 -0.067  7.530 -0.038  7.540  0.013
  7.550  0.042  7.560  0.040  7.570  0.033  7.580  0.011  7.590  0.022
  7.600  0.033  7.610  0.009  7.620 -0.020  7.630 -0.049  7.640 -0.057
  7.650 -0.057  7.660 -0.035  7.670  0.056  7.680  0.122  7.690  0.086
  7.700  0.029  7.710 -0.009  7.720  0.014  7.730  0.033  7.740  0.033
  7.750  0.033  7.760  0.004  7.770 -0.024  7.780 -0.034  7.790 -0.032
  7.800 -0.003  7.810  0.011  7.820 -0.011  7.830 -0.062  7.840 -0.079
  7.850 -0.061  7.860 -0.033  7.870 -0.004  7.880  0.039  7.890  0.076
  7.900  0.078  7.910  0.067  7.920  0.021  7.930 -0.012  7.940 -0.012
  7.950 -0.012  7.960 -0.051  7.970 -0.050  7.980  0.008  7.990  0.065
  8.000  0.101  8.010  0.059  8.020 -0.015  8.030 -0.053  8.040 -0.079
  8.050 -0.061  8.060 -0.019  8.070 -0.012  8.080 -0.024  8.090  0.011
  8.100  0.011  8.110 -0.038  8.120 -0.079  8.130 -0.079  8.140 -0.059
  8.150 -0.003  8.160  0.033  8.170  0.033  8.180  0.032  8.190  0.003
  8.200 -0.012  8.210 -0.012  8.220 -0.012  8.230 -0.022  8.240 -0.034
  8.250 -0.034  8.260 -0.018  8.270 -0.047  8.280 -0.095  8.290 -0.102
  8.300 -0.084  8.310 -0.026  8.320  0.010  8.330  0.038  8.340  0.056
  8.350  0.038  8.360  0.035  8.370  0.056  8.380  0.056  8.390  0.056
  8.400  0.006  8.410 -0.023  8.420 -0.051  8.430 -0.056  8.440 -0.034
  8.450 -0.007  8.460  0.030  8.470  0.030  8.480  0.001  8.490 -0.028
  8.500 -0.079  8.510 -0.050  8.520 -0.009  8.530  0.048  8.540  0.123
  8.550  0.105  8.560  0.047  8.570  0.012  8.580  0.028  8.590  0.011
  8.600 -0.007  8.610 -0.034  8.620 -0.034  8.630 -0.020  8.640  0.009
  8.650  0.060  8.660  0.067  8.670  0.038  8.680  0.010  8.690 -0.012
  8.700 -0.012  8.710  0.008  8.720  0.011  8.730  0.001  8.740 -0.012
  8.750 -0.012  8.760 -0.018  8.770 -0.022  8.780  0.007  8.790  0.011
  8.800  0.002  8.810 -0.027  8.820 -0.013  8.830  0.016  8.840  0.033
  8.850  0.015  8.860 -0.012  8.870 -0.004  8.880  0.025  8.890  0.054
  8.900  0.024  8.910 -0.033  8.920 -0.057  8.930 -0.056  8.940 -0.013
  8.950  0.047  8.960  0.075  8.970  0.074  8.980  0.056  8.990  0.056
  9.000  0.056  9.010  0.056  9.020  0.043  9.030 -0.005  9.040 -0.034
  9.050 -0.025  9.060 -0.012  9.070 -0.012  9.080 -0.017  9.090 -0.046
  9.100 -0.057  9.110 -0.055  9.120 -0.018  9.130  0.025  9.140  0.054
  9.150  0.051  9.160  0.022  9.170  0.011  9.180 -0.013  9.190 -0.041
  9.200 -0.057  9.210 -0.017  9.220  0.011  9.230  0.011  9.240  0.011
  9.250  0.033  9.260  0.056  9.270  0.056  9.280  0.037  9.290  0.011
  9.300  0.002  9.310 -0.027  9.320 -0.034  9.330 -0.029  9.340 -0.012
  9.350 -0.030  9.360 -0.034  9.370 -0.026  9.380  0.017  9.390  0.033
  9.400  0.006  9.410 -0.023  9.420 -0.051  9.430 -0.033  9.440 -0.012
  9.450 -0.025  9.460 -0.034  9.470 -0.060  9.480 -0.089  9.490 -0.118
  9.500 -0.102  9.510 -0.044  9.520  0.013  9.530  0.071  9.540  0.101
  9.550  0.092  9.560  0.078  9.570  0.078  9.580  0.078  9.590  0.090
  9.600  0.083  9.610  0.052  9.620 -0.006  9.630 -0.049  9.640 -0.077
  9.650 -0.111  9.660 -0.157  9.670 -0.169  9.680 -0.191  9.690 -0.162
  9.700 -0.147  9.710 -0.127  9.720 -0.147  9.730 -0.147  9.740 -0.114
  9.750 -0.079  9.760 -0.034  9.770 -0.022  9.780 -0.012  9.790  0.033
  9.800  0.033  9.810  0.033  9.820  0.012  9.830 -0.012  9.840 -0.000
  9.850  0.047  9.860  0.078  9.870  0.078  9.880  0.078  9.890  0.037
  9.900  0.002  9.910 -0.034  9.920 -0.034  9.930 -0.010  9.940  0.055
  9.950  0.127  9.960  0.165  9.970  0.213  9.980  0.223  9.990  0.252
 10.000  0.280 10.010  0.252 10.020  0.223 10.030  0.213 10.040  0.218
 10.050  0.258 10.060  0.227 10.070  0.148 10.080  0.034 10.090 -0.058
 10.100 -0.115 10.110 -0.148 10.120 -0.185 10.130 -0.228 10.140 -0.216
 10.150 -0.142 10.160 -0.113 10.170 -0.119 10.180 -0.146 10.190 -0.124
 10.200 -0.124 10.210 -0.144 10.220 -0.095 10.230 -0.037 10.240  0.004
 10.250  0.033 10.260  0.027 10.270 -0.015 10.280 -0.053 10.290 -0.059
 10.300 -0.088 10.310 -0.132 10.320 -0.168 10.330 -0.147 10.340 -0.135
 10.350 -0.106 10.360 -0.079 10.370 -0.079 10.380 -0.050 10.390  0.007
 10.400  0.011 10.410  0.021 10.420  0.016 10.430  0.010 10.440 -0.012
 10.450 -0.012 10.460 -0.012 10.470  0.044 10.480  0.120 10.490  0.162
 10.500  0.145 10.510  0.094 10.520  0.053 10.530  0.014 10.540 -0.037
 10.550 -0.066 10.560 -0.095 10.570 -0.102 10.580 -0.074 10.590 -0.068
 10.600 -0.061 10.610 -0.008 10.620  0.041 10.630  0.041 10.640  0.012
 10.650 -0.012 10.660 -0.001 10.670  0.045 10.680  0.102 10.690  0.153
 10.700  0.181 10.710  0.190 10.720  0.168 10.730  0.168 10.740  0.136
 10.750  0.123 10.760  0.123 10.770  0.110 10.780  0.063 10.790  0.061
 10.800  0.110 10.810  0.154 10.820  0.211 10.830  0.213 10.840  0.190
 10.850  0.150 10.860  0.121 10.870  0.076 10.880  0.004 10.890 -0.074
 10.900 -0.106 10.910 -0.113 10.920 -0.050 10.930 -0.010 10.940  0.033
 10.950  0.047 10.960  0.075 10.970  0.067 10.980 -0.009 10.990 -0.115
 11.000 -0.214 11.010 -0.230 11.020 -0.189 11.030 -0.150 11.040 -0.127
 11.050 -0.156 11.060 -0.184 11.070 -0.235 11.080 -0.304 11.090 -0.292
 11.100 -0.264 11.110 -0.233 11.120 -0.184 11.130 -0.155 11.140 -0.105
 11.150 -0.075 11.160 -0.057 11.170 -0.091 11.180 -0.148 11.190 -0.199
 11.200 -0.174 11.210 -0.048 11.220  0.092 11.230  0.178 11.240  0.174
 11.250  0.145 11.260  0.088 11.270  0.043 11.280  0.033 11.290  0.036
 11.300  0.065 11.310  0.078 11.320  0.078 11.330  0.061 11.340  0.090
 11.350  0.118 11.360  0.151 11.370  0.237 11.380  0.309 11.390  0.325
 11.400  0.271 11.410  0.203 11.420  0.134 11.430  0.147 11.440  0.198
 11.450  0.240 11.460  0.258 11.470  0.310 11.480  0.367 11.490  0.376
 11.500  0.280 11.510  0.095 11.520 -0.122 11.530 -0.324 11.540 -0.444
 11.550 -0.484 11.560 -0.484 11.570 -0.462 11.580 -0.372 11.590 -0.234
 11.600 -0.061 11.610  0.108 11.620  0.198 11.630  0.213 11.640  0.172
 11.650  0.083 11.660 -0.022 11.670 -0.074 11.680 -0.124 11.690 -0.131
 11.700 -0.147 11.710 -0.147 11.720 -0.176 11.730 -0.224 11.740 -0.269
 11.750 -0.282 11.760 -0.282 11.770 -0.256 11.780 -0.199 11.790 -0.144
 11.800 -0.124 11.810 -0.155 11.820 -0.191 11.830 -0.214 11.840 -0.202
 11.850 -0.156 11.860 -0.072 11.870  0.051 11.880  0.152 11.890  0.189
 11.900  0.172 11.910  0.212 11.920  0.252 11.930  0.281 11.940  0.317
 11.950  0.361 11.960  0.370 11.970  0.292 11.980  0.206 11.990  0.119
 12.000  0.033 12.010 -0.095 12.020 -0.229 12.030 -0.259 12.040 -0.203
 12.050 -0.097 12.060 -0.011 12.070  0.054 12.080  0.122 12.090  0.249
 12.100  0.357 12.110  0.387 12.120  0.277 12.130  0.090 12.140 -0.050
 12.150 -0.160 12.160 -0.236 12.170 -0.276 12.180 -0.303 12.190 -0.253
 12.200 -0.124 12.210 -0.000 12.220  0.085 12.230  0.103 12.240  0.062
 12.250  0.011 12.260 -0.024 12.270 -0.082 12.280 -0.121 12.290 -0.122
 12.300 -0.093 12.310 -0.049 12.320  0.074 12.330  0.217 12.340  0.361
 12.350  0.433 12.360  0.406 12.370  0.254 12.380  0.096 12.390 -0.048
 12.400 -0.183 12.410 -0.215 12.420 -0.106 12.430  0.084 12.440  0.264
 12.450  0.352 12.460  0.331 12.470  0.191 12.480 -0.001 12.490 -0.199
 12.500 -0.326 12.510 -0.320 12.520 -0.266 12.530 -0.180 12.540 -0.094
 12.550 -0.007 12.560  0.094 12.570  0.188 12.580  0.230 12.590  0.190
 12.600  0.096 12.610 -0.041 12.620 -0.157 12.630 -0.257 12.640 -0.323
