UNCORRECTED ACCELEROGRAM DATA              PROCESSED: 05/24/2011
MAULE 2010
02/27/2010 3:41:05 (GMT)                (ORIGIN: 02/27/2010 3:41:05 GMT)
                                   TRIGGER TIME: 2/27/2010 3:41:15.000 GMT
STATION NO.          0.000N    0.000E  QDR       S/N  675 (3  CHNS OF 3  AT STA)
VIÑA DEL MAR CENTRO S/N 675
CHAN  1: EW       (STA CHN:  1)               
UNIVERSIDAD DE CHILE - RENADIC
HYPOCENTER:   0.000N    0.000E  H=   0.0KM   ML= 0.00
INSTR PERIOD = 0.0391 SEC,  DAMPING =0.7000,  SENSITIVITY =1.250 VDC/G
NO. OF POINTS =   3500  RECORD LENGTH = 35.000 SEC
UNITS OF UNCOR ACCEL ARE SEC AND G/10.     MAX  = -0.036 G, AT  -6.490 SEC
RMS ACCEL OF COMPLETE RECORD = 0.009 G
    1    1    1    3    3    0    1    0    0    0    0    0    0    0    0    0
    0    0    0    0    0    0    0    0    0    0    0 3500   10   27   30    0
    0    0    0    0    0    0    0    0    0    0    0    0    0    0    0    0
    0    0    0    0    0    0    0    0    0    0    0    0    0    0    0    0
    0    0    0    0    0    0    0    0    0    0    0    0    0    0    0    0
    0    0    0    0    0    0    0    0    0    0    0    0    0    0    0    0
    0    0    0    0
     0.039     0.700    35.000     0.009     0.100     1.250    -0.036    -6.490
    25.575     0.000     0.000     0.000    10.000     0.000    10.000    10.000
     0.000     0.000     0.000     0.000     0.000     0.000     0.000     0.000
     0.000     0.000     0.000     0.000     0.000     0.000     0.000     0.000
     0.000     0.000     0.000     0.000     0.000     0.000     0.000     0.000
     0.000     0.000     0.000     0.000     0.000     0.000     0.000     0.000
     0.000     0.000
  0.000  0.037  0.010  0.060  0.020  0.060  0.030  0.080  0.040  0.086
  0.050  0.116  0.060  0.130  0.070  0.108  0.080  0.078  0.090  0.048
  0.100 -0.000  0.110 -0.035  0.120 -0.048  0.130 -0.018  0.140  0.012
  0.150  0.037  0.160  0.037  0.170  0.055  0.180  0.059  0.190  0.030
  0.200  0.014  0.210  0.014  0.220  0.010  0.230 -0.020  0.240 -0.033
  0.250 -0.033  0.260 -0.033  0.270 -0.020  0.280 -0.009  0.290  0.011
  0.300 -0.019  0.310 -0.064  0.320 -0.124  0.330 -0.155  0.340 -0.172
  0.350 -0.154  0.360 -0.124  0.370 -0.094  0.380 -0.079  0.390 -0.079
  0.400 -0.084  0.410 -0.102  0.420 -0.102  0.430 -0.102  0.440 -0.072
  0.450 -0.056  0.460 -0.036  0.470 -0.033  0.480 -0.022  0.490  0.007
  0.500  0.014  0.510  0.014  0.520  0.014  0.530  0.033  0.540  0.037
  0.550  0.046  0.560  0.092  0.570  0.151  0.580  0.177  0.590  0.177
  0.600  0.177  0.610  0.153  0.620  0.137  0.630  0.107  0.640  0.085
  0.650  0.111  0.660  0.152  0.670  0.177  0.680  0.200  0.690  0.200
  0.700  0.200  0.710  0.200  0.720  0.200  0.730  0.210  0.740  0.223
  0.750  0.246  0.760  0.240  0.770  0.223  0.780  0.223  0.790  0.241
  0.800  0.191  0.810  0.145  0.820  0.063  0.830  0.003  0.840 -0.045
  0.850 -0.075  0.860 -0.101  0.870 -0.071  0.880 -0.041  0.890 -0.033
  0.900 -0.037  0.910 -0.078  0.920 -0.120  0.930 -0.150  0.940 -0.180
  0.950 -0.223  0.960 -0.263  0.970 -0.292  0.980 -0.312  0.990 -0.312
  1.000 -0.289  1.010 -0.229  1.020 -0.182  1.030 -0.133  1.040 -0.097
  1.050 -0.047  1.060 -0.001  1.070  0.036  1.080  0.066  1.090  0.084
  1.100  0.065  1.110  0.037  1.120  0.029  1.130 -0.001  1.140 -0.052
  1.150 -0.084  1.160 -0.114  1.170 -0.143  1.180 -0.125  1.190 -0.095
  1.200 -0.079  1.210 -0.038  1.220 -0.006  1.230  0.034  1.240  0.060
  1.250  0.060  1.260  0.054  1.270  0.024  1.280  0.014  1.290 -0.007
  1.300  0.023  1.310  0.037  1.320  0.037  1.330  0.037  1.340  0.025
  1.350  0.014  1.360  0.016  1.370  0.037  1.380  0.037  1.390  0.037
  1.400  0.060  1.410  0.083  1.420  0.089  1.430  0.083  1.440  0.053
  1.450  0.023  1.460  0.034  1.470  0.037  1.480  0.037  1.490  0.054
  1.500  0.084  1.510  0.084  1.520  0.084  1.530  0.103  1.540  0.104
  1.550  0.074  1.560  0.044  1.570  0.015  1.580  0.008  1.590 -0.009
  1.600  0.009  1.610  0.014  1.620  0.014  1.630  0.029  1.640  0.058
  1.650  0.060  1.660  0.060  1.670  0.060  1.680  0.060  1.690  0.060
  1.700  0.060  1.710  0.040  1.720  0.010  1.730 -0.009  1.740  0.007
  1.750 -0.009  1.760 -0.033  1.770 -0.046  1.780 -0.056  1.790 -0.056
  1.800 -0.056  1.810 -0.056  1.820 -0.056  1.830 -0.050  1.840 -0.033
  1.850 -0.033  1.860 -0.009  1.870 -0.001  1.880  0.029  1.890  0.058
  1.900  0.111  1.910  0.130  1.920  0.130  1.930  0.105  1.940  0.045
  1.950 -0.014  1.960 -0.033  1.970 -0.079  1.980 -0.079  1.990 -0.063
  2.000 -0.033  2.010 -0.009  2.020  0.004  2.030  0.033  2.040  0.037
  2.050  0.046  2.060  0.060  2.070  0.105  2.080  0.107  2.090  0.107
  2.100  0.088  2.110  0.080  2.120  0.029  2.130 -0.001  2.140 -0.052
  2.150 -0.051  2.160 -0.022  2.170 -0.009  2.180 -0.009  2.190  0.014
  2.200  0.028  2.210  0.037  2.220  0.037  2.230  0.037  2.240  0.037
  2.250  0.037  2.260  0.044  2.270  0.073  2.280  0.084  2.290  0.055
  2.300  0.004  2.310 -0.009  2.320 -0.032  2.330 -0.062  2.340 -0.079
  2.350 -0.098  2.360 -0.079  2.370 -0.071  2.380 -0.041  2.390 -0.033
  2.400 -0.033  2.410 -0.033  2.420 -0.033  2.430 -0.033  2.440 -0.040
  2.450 -0.056  2.460 -0.056  2.470 -0.056  2.480 -0.056  2.490 -0.056
  2.500 -0.056  2.510 -0.003  2.520  0.027  2.530  0.057  2.540  0.084
  2.550  0.074  2.560  0.076  2.570  0.106  2.580  0.148  2.590  0.118
  2.600  0.070  2.610  0.033  2.620 -0.018  2.630 -0.048  2.640 -0.056
  2.650 -0.028  2.660  0.002  2.670  0.031  2.680  0.061  2.690  0.091
  2.700  0.121  2.710  0.130  2.720  0.126  2.730  0.086  2.740  0.044
  2.750  0.014  2.760 -0.009  2.770 -0.009  2.780 -0.029  2.790 -0.059
  2.800 -0.089  2.810 -0.134  2.820 -0.171  2.830 -0.172  2.840 -0.184
  2.850 -0.196  2.860 -0.170  2.870 -0.141  2.880 -0.111  2.890 -0.102
  2.900 -0.098  2.910 -0.079  2.920 -0.079  2.930 -0.078  2.940 -0.049
  2.950 -0.033  2.960 -0.012  2.970 -0.033  2.980 -0.033  2.990 -0.033
  3.000 -0.033  3.010 -0.039  3.020 -0.043  3.030 -0.033  3.040 -0.004
  3.050  0.056  3.060  0.115  3.070  0.175  3.080  0.200  3.090  0.200
  3.100  0.181  3.110  0.177  3.120  0.177  3.130  0.177  3.140  0.198
  3.150  0.200  3.160  0.200  3.170  0.182  3.180  0.152  3.190  0.123
  3.200  0.093  3.210  0.084  3.220  0.084  3.230  0.084  3.240  0.084
  3.250  0.107  3.260  0.137  3.270  0.153  3.280  0.153  3.290  0.130
  3.300  0.121  3.310  0.075  3.320  0.038  3.330  0.008  3.340 -0.022
  3.350 -0.033  3.360 -0.060  3.370 -0.119  3.380 -0.149  3.390 -0.149
  3.400 -0.126  3.410 -0.126  3.420 -0.126  3.430 -0.150  3.440 -0.180
  3.450 -0.209  3.460 -0.239  3.470 -0.269  3.480 -0.299  3.490 -0.329
  3.500 -0.335  3.510 -0.358  3.520 -0.345  3.530 -0.335  3.540 -0.335
  3.550 -0.335  3.560 -0.319  3.570 -0.267  3.580 -0.231  3.590 -0.171
  3.600 -0.130  3.610 -0.101  3.620 -0.079  3.630 -0.064  3.640 -0.056
  3.650 -0.033  3.660 -0.022  3.670 -0.009  3.680 -0.009  3.690 -0.009
  3.700  0.018  3.710  0.057  3.720  0.087  3.730  0.117  3.740  0.147
  3.750  0.153  3.760  0.177  3.770  0.190  3.780  0.200  3.790  0.203
  3.800  0.223  3.810  0.223  3.820  0.223  3.830  0.223  3.840  0.223
  3.850  0.204  3.860  0.173  3.870  0.122  3.880  0.077  3.890  0.039
  3.900  0.014  3.910  0.014  3.920 -0.004  3.930 -0.033  3.940 -0.040
  3.950 -0.056  3.960 -0.076  3.970 -0.102  3.980 -0.102  3.990 -0.119
  4.000 -0.126  4.010 -0.132  4.020 -0.149  4.030 -0.149  4.040 -0.175
  4.050 -0.205  4.060 -0.235  4.070 -0.242  4.080 -0.242  4.090 -0.230
  4.100 -0.200  4.110 -0.167  4.120 -0.094  4.130 -0.064  4.140 -0.056
  4.150 -0.079  4.160 -0.079  4.170 -0.079  4.180 -0.078  4.190 -0.056
  4.200 -0.070  4.210 -0.079  4.220 -0.056  4.230 -0.056  4.240 -0.056
  4.250 -0.056  4.260 -0.026  4.270  0.017  4.280  0.057  4.290  0.110
  4.300  0.139  4.310  0.153  4.320  0.153  4.330  0.130  4.340  0.130
  4.350  0.149  4.360  0.155  4.370  0.177  4.380  0.177  4.390  0.177
  4.400  0.158  4.410  0.177  4.420  0.194  4.430  0.201  4.440  0.223
  4.450  0.223  4.460  0.203  4.470  0.173  4.480  0.153  4.490  0.153
  4.500  0.153  4.510  0.124  4.520  0.094  4.530  0.044  4.540  0.014
  4.550 -0.005  4.560 -0.049  4.570 -0.101  4.580 -0.155  4.590 -0.196
  4.600 -0.237  4.610 -0.263  4.620 -0.242  4.630 -0.242  4.640 -0.221
  4.650 -0.196  4.660 -0.196  4.670 -0.196  4.680 -0.196  4.690 -0.188
  4.700 -0.144  4.710 -0.085  4.720 -0.029  4.730 -0.009  4.740 -0.009
  4.750 -0.033  4.760 -0.063  4.770 -0.092  4.780 -0.102  4.790 -0.100
  4.800 -0.070  4.810 -0.024  4.820  0.013  4.830  0.043  4.840  0.048
  4.850  0.056  4.860  0.058  4.870  0.037  4.880  0.052  4.890  0.082
  4.900  0.111  4.910  0.141  4.920  0.171  4.930  0.176  4.940  0.146
  4.950  0.130  4.960  0.130  4.970  0.111  4.980  0.130  4.990  0.130
  5.000  0.130  5.010  0.100  5.020  0.057  5.030  0.017  5.040 -0.012
  5.050 -0.042  5.060 -0.056  5.070 -0.078  5.080 -0.079  5.090 -0.079
  5.100 -0.079  5.110 -0.058  5.120 -0.071  5.130 -0.056  5.140 -0.056
  5.150 -0.061  5.160 -0.090  5.170 -0.120  5.180 -0.127  5.190 -0.142
  5.200 -0.126  5.210 -0.105  5.220 -0.102  5.230 -0.113  5.240 -0.142
  5.250 -0.149  5.260 -0.119  5.270 -0.076  5.280 -0.017  5.290  0.045
  5.300  0.116  5.310  0.146  5.320  0.176  5.330  0.165  5.340  0.118
  5.350  0.088  5.360  0.085  5.370  0.107  5.380  0.122  5.390  0.130
  5.400  0.130  5.410  0.130  5.420  0.130  5.430  0.154  5.440  0.177
  5.450  0.177  5.460  0.177  5.470  0.173  5.480  0.153  5.490  0.120
  5.500  0.084  5.510  0.031  5.520 -0.012  5.530 -0.052  5.540 -0.059
  5.550 -0.070  5.560 -0.040  5.570 -0.033  5.580 -0.033  5.590 -0.033
  5.600 -0.051  5.610 -0.079  5.620 -0.079  5.630 -0.094  5.640 -0.124
  5.650 -0.130  5.660 -0.160  5.670 -0.208  5.680 -0.242  5.690 -0.249
  5.700 -0.265  5.710 -0.245  5.720 -0.242  5.730 -0.232  5.740 -0.185
  5.750 -0.172  5.760 -0.149  5.770 -0.123  5.780 -0.083  5.790 -0.050
  5.800 -0.000  5.810  0.030  5.820  0.037  5.830  0.043  5.840  0.072
  5.850  0.102  5.860  0.132  5.870  0.162  5.880  0.191  5.890  0.200
  5.900  0.228  5.910  0.257  5.920  0.270  5.930  0.244  5.940  0.192
  5.950  0.149  5.960  0.130  5.970  0.107  5.980  0.107  5.990  0.124
  6.000  0.107  6.010  0.130  6.020  0.130  6.030  0.091  6.040  0.078
  6.050  0.028  6.060 -0.018  6.070 -0.055  6.080 -0.033  6.090 -0.033
  6.100 -0.014  6.110  0.037  6.120  0.037  6.130  0.022  6.140 -0.008
  6.150 -0.033  6.160 -0.044  6.170 -0.074  6.180 -0.102  6.190 -0.110
  6.200 -0.140  6.210 -0.169  6.220 -0.176  6.230 -0.196  6.240 -0.196
  6.250 -0.196  6.260 -0.196  6.270 -0.209  6.280 -0.219  6.290 -0.219
  6.300 -0.219  6.310 -0.219  6.320 -0.241  6.330 -0.242  6.340 -0.230
  6.350 -0.219  6.360 -0.170  6.370 -0.141  6.380 -0.096  6.390 -0.036
  6.400 -0.005  6.410  0.025  6.420  0.037  6.430  0.084  6.440  0.114
  6.450  0.116  6.460  0.107  6.470  0.080  6.480  0.050  6.490  0.037
  6.500  0.060  6.510  0.060  6.520  0.060  6.530  0.080  6.540  0.084
  6.550  0.093  6.560  0.123  6.570  0.152  6.580  0.148  6.590  0.130
  6.600  0.130  6.610  0.109  6.620  0.130  6.630  0.115  6.640  0.107
  6.650  0.084  6.660  0.084  6.670  0.084  6.680  0.084  6.690  0.076
  6.700  0.074  6.710  0.084  6.720  0.084  6.730  0.094  6.740  0.124
  6.750  0.153  6.760  0.130  6.770  0.117  6.780  0.068  6.790  0.011
  6.800 -0.019  6.810 -0.033  6.820 -0.055  6.830 -0.056  6.840 -0.068
  6.850 -0.079  6.860 -0.102  6.870 -0.111  6.880 -0.126  6.890 -0.147
  6.900 -0.149  6.910 -0.149  6.920 -0.149  6.930 -0.149  6.940 -0.149
  6.950 -0.149  6.960 -0.129  6.970 -0.122  6.980 -0.102  6.990 -0.102
  7.000 -0.079  7.010 -0.079  7.020 -0.079  7.030 -0.079  7.040 -0.102
  7.050 -0.102  7.060 -0.102  7.070 -0.080  7.080 -0.050  7.090 -0.021
  7.100  0.009  7.110  0.062  7.120  0.092  7.130  0.107  7.140  0.128
  7.150  0.130  7.160  0.119  7.170  0.107  7.180  0.131  7.190  0.153
  7.200  0.181  7.210  0.220  7.220  0.227  7.230  0.246  7.240  0.230
  7.250  0.200  7.260  0.164  7.270  0.130  7.280  0.111  7.290  0.084
  7.300  0.084  7.310  0.084  7.320  0.061  7.330  0.055  7.340  0.025
  7.350 -0.005  7.360 -0.058  7.370 -0.079  7.380 -0.079  7.390 -0.079
  7.400 -0.079  7.410 -0.079  7.420 -0.079  7.430 -0.080  7.440 -0.110
  7.450 -0.140  7.460 -0.169  7.470 -0.176  7.480 -0.196  7.490 -0.196
  7.500 -0.219  7.510 -0.212  7.520 -0.196  7.530 -0.196  7.540 -0.196
  7.550 -0.196  7.560 -0.196  7.570 -0.173  7.580 -0.167  7.590 -0.137
  7.600 -0.107  7.610 -0.101  7.620 -0.071  7.630 -0.041  7.640 -0.011
  7.650  0.023  7.660  0.071  7.670  0.119  7.680  0.178  7.690  0.231
  7.700  0.260  7.710  0.290  7.720  0.289  7.730  0.270  7.740  0.270
  7.750  0.270  7.760  0.270  7.770  0.257  7.780  0.227  7.790  0.177
  7.800  0.186  7.810  0.200  7.820  0.200  7.830  0.205  7.840  0.223
  7.850  0.204  7.860  0.175  7.870  0.137  7.880  0.077  7.890  0.039
  7.900  0.009  7.910 -0.032  7.920 -0.074  7.930 -0.104  7.940 -0.164
  7.950 -0.196  7.960 -0.216  7.970 -0.246  7.980 -0.276  7.990 -0.305
  8.000 -0.335  8.010 -0.335  8.020 -0.348  8.030 -0.339  8.040 -0.332
  8.050 -0.312  8.060 -0.296  8.070 -0.289  8.080 -0.265  8.090 -0.253
  8.100 -0.242  8.110 -0.217  8.120 -0.179  8.130 -0.119  8.140 -0.081
  8.150 -0.051  8.160 -0.022  8.170  0.026  8.180  0.060  8.190  0.068
  8.200  0.097  8.210  0.107  8.220  0.130  8.230  0.140  8.240  0.153
  8.250  0.177  8.260  0.170  8.270  0.153  8.280  0.173  8.290  0.174
  8.300  0.163  8.310  0.177  8.320  0.177  8.330  0.142  8.340  0.095
  8.350  0.065  8.360  0.012  8.370 -0.026  8.380 -0.071  8.390 -0.122
  8.400 -0.154  8.410 -0.183  8.420 -0.196  8.430 -0.196  8.440 -0.188
  8.450 -0.172  8.460 -0.152  8.470 -0.172  8.480 -0.172  8.490 -0.172
  8.500 -0.149  8.510 -0.126  8.520 -0.113  8.530 -0.122  8.540 -0.126
  8.550 -0.126  8.560 -0.126  8.570 -0.126  8.580 -0.102  8.590 -0.090
  8.600 -0.061  8.610 -0.008  8.620  0.022  8.630  0.052  8.640  0.082
  8.650  0.111  8.660  0.141  8.670  0.153  8.680  0.153  8.690  0.161
  8.700  0.191  8.710  0.220  8.720  0.250  8.730  0.270  8.740  0.253
  8.750  0.223  8.760  0.193  8.770  0.177  8.780  0.177  8.790  0.153
  8.800  0.144  8.810  0.114  8.820  0.062  8.830  0.031  8.840 -0.010
  8.850 -0.033  8.860 -0.058  8.870 -0.079  8.880 -0.094  8.890 -0.102
  8.900 -0.130  8.910 -0.149  8.920 -0.149  8.930 -0.149  8.940 -0.156
  8.950 -0.186  8.960 -0.216  8.970 -0.269  8.980 -0.299  8.990 -0.312
  9.000 -0.312  9.010 -0.312  9.020 -0.312  9.030 -0.273  9.040 -0.239
  9.050 -0.209  9.060 -0.180  9.070 -0.128  9.080 -0.091  9.090 -0.044
  9.100 -0.033  9.110 -0.031  9.120 -0.001  9.130  0.029  9.140  0.058
  9.150  0.111  9.160  0.141  9.170  0.171  9.180  0.201  9.190  0.223
  9.200  0.223  9.210  0.244  9.220  0.270  9.230  0.280  9.240  0.293
  9.250  0.293  9.260  0.293  9.270  0.280  9.280  0.231  9.290  0.200
  9.300  0.181  9.310  0.137  9.320  0.130  9.330  0.107  9.340  0.095
  9.350  0.065  9.360  0.033  9.370 -0.018  9.380 -0.048  9.390 -0.077
  9.400 -0.102  9.410 -0.091  9.420 -0.079  9.430 -0.079  9.440 -0.079
  9.450 -0.093  9.460 -0.123  9.470 -0.153  9.480 -0.182  9.490 -0.196
  9.500 -0.196  9.510 -0.219  9.520 -0.219  9.530 -0.199  9.540 -0.172
  9.550 -0.172  9.560 -0.156  9.570 -0.149  9.580 -0.097  9.590 -0.067
  9.600 -0.037  9.610 -0.031  9.620 -0.001  9.630  0.029  9.640  0.058
  9.650  0.088  9.660  0.118  9.670  0.148  9.680  0.177  9.690  0.184
  9.700  0.200  9.710  0.200  9.720  0.204  9.730  0.223  9.740  0.223
  9.750  0.246  9.760  0.270  9.770  0.270  9.780  0.270  9.790  0.270
  9.800  0.270  9.810  0.270  9.820  0.247  9.830  0.217  9.840  0.188
  9.850  0.139  9.860  0.103  9.870  0.052  9.880  0.007  9.890 -0.052
  9.900 -0.107  9.910 -0.137  9.920 -0.184  9.930 -0.196  9.940 -0.188
  9.950 -0.158  9.960 -0.108  9.970 -0.079  9.980 -0.059  9.990  0.034
 10.000  0.084 10.010  0.060 10.020  0.073 10.030  0.084 10.040  0.104
 10.050  0.074 10.060  0.060 10.070  0.038 10.080  0.014 10.090  0.014
 10.100 -0.005 10.110 -0.009 10.120 -0.018 10.130 -0.033 10.140 -0.054
 10.150 -0.056 10.160 -0.067 10.170 -0.079 10.180 -0.102 10.190 -0.102
 10.200 -0.102 10.210 -0.102 10.220 -0.102 10.230 -0.113 10.240 -0.109
 10.250 -0.102 10.260 -0.102 10.270 -0.102 10.280 -0.083 10.290 -0.056
 10.300 -0.047 10.310 -0.049 10.320 -0.034 10.330 -0.033 10.340 -0.033
 10.350 -0.051 10.360 -0.077 10.370 -0.056 10.380 -0.041 10.390 -0.011
 10.400 -0.005 10.410  0.014 10.420 -0.004 10.430 -0.009 10.440  0.014
 10.450  0.014 10.460  0.034 10.470  0.064 10.480  0.094 10.490  0.090
 10.500  0.107 10.510  0.094 10.520  0.060 10.530  0.060 10.540  0.057
 10.550  0.037 10.560  0.021 10.570  0.014 10.580  0.019 10.590  0.037
 10.600  0.037 10.610  0.037 10.620  0.037 10.630  0.037 10.640  0.037
 10.650  0.014 10.660  0.003 10.670 -0.009 10.680 -0.009 10.690 -0.009
 10.700 -0.023 10.710 -0.053 10.720 -0.060 10.730 -0.079 10.740 -0.079
 10.750 -0.079 10.760 -0.073 10.770 -0.056 10.780 -0.056 10.790 -0.059
 10.800 -0.079 10.810 -0.079 10.820 -0.079 10.830 -0.079 10.840 -0.079
 10.850 -0.061 10.860 -0.033 10.870 -0.024 10.880 -0.009 10.890 -0.009
 10.900  0.023 10.910  0.060 10.920  0.060 10.930  0.059 10.940  0.030
 10.950 -0.000 10.960 -0.009 10.970 -0.009 10.980  0.001 10.990  0.014
 11.000  0.037 11.010  0.037 11.020  0.050 11.030  0.060 11.040  0.084
 11.050  0.084 11.060  0.084 11.070  0.084 11.080  0.078 11.090  0.060
 11.100  0.060 11.110  0.058 11.120  0.037 11.130  0.022 11.140  0.014
 11.150  0.009 11.160 -0.021 11.170 -0.033 11.180 -0.057 11.190 -0.079
 11.200 -0.093 11.210 -0.102 11.220 -0.076 11.230 -0.046 11.240 -0.033
 11.250 -0.009 11.260 -0.033 11.270 -0.020 11.280 -0.009 11.290 -0.030
 11.300 -0.000 11.310  0.030 11.320  0.037 11.330  0.060 11.340  0.072
 11.350  0.084 11.360  0.084 11.370  0.084 11.380  0.098 11.390  0.107
 11.400  0.107 11.410  0.118 11.420  0.112 11.430  0.107 11.440  0.099
 11.450  0.084 11.460  0.084 11.470  0.080 11.480  0.060 11.490  0.044
 11.500  0.037 11.510  0.037 11.520  0.050 11.530  0.060 11.540  0.060
 11.550  0.060 11.560  0.060 11.570  0.038 11.580  0.008 11.590 -0.022
 11.600 -0.051 11.610 -0.079 11.620 -0.088 11.630 -0.102 11.640 -0.124
 11.650 -0.130 11.660 -0.149 11.670 -0.149 11.680 -0.148 11.690 -0.126
 11.700 -0.126 11.710 -0.146 11.720 -0.149 11.730 -0.159 11.740 -0.172
 11.750 -0.149 11.760 -0.142 11.770 -0.126 11.780 -0.126 11.790 -0.100
 11.800 -0.079 11.810 -0.079 11.820 -0.079 11.830 -0.045 11.840  0.003
 11.850  0.032 11.860  0.060 11.870  0.052 11.880  0.052 11.890  0.039
 11.900  0.042 11.910  0.060 11.920  0.096 11.930  0.108 11.940  0.130
 11.950  0.130 11.960  0.130 11.970  0.130 11.980  0.140 11.990  0.153
 12.000  0.153 12.010  0.177 12.020  0.177 12.030  0.177 12.040  0.153
 12.050  0.153 12.060  0.153 12.070  0.131 12.080  0.084 12.090  0.071
 12.100  0.060 12.110  0.035 12.120  0.014 12.130 -0.001 12.140 -0.009
 12.150 -0.005 12.160  0.014 12.170  0.014 12.180 -0.009 12.190 -0.017
 12.200 -0.033 12.210 -0.053 12.220 -0.079 12.230 -0.079 12.240 -0.079
 12.250 -0.102 12.260 -0.126 12.270 -0.126 12.280 -0.145 12.290 -0.149
 12.300 -0.149 12.310 -0.149 12.320 -0.149 12.330 -0.126 12.340 -0.126
 12.350 -0.107 12.360 -0.077 12.370 -0.056 12.380 -0.056 12.390 -0.035
 12.400 -0.028 12.410 -0.009 12.420 -0.009 12.430  0.015 12.440  0.037
 12.450  0.037 12.460  0.057 12.470  0.060 12.480  0.050 12.490  0.020
 12.500 -0.009 12.510 -0.009 12.520  0.004 12.530  0.033 12.540  0.040
 12.550  0.060 12.560  0.044 12.570  0.015 12.580  0.014 12.590  0.026
 12.600  0.037 12.610  0.037 12.620  0.045 12.630  0.045 12.640  0.016
